Data from кристалл3_MAYP1156461__3__31.txt Node

Date: Fri Sep 01 15:48:23 MSK 2023
User: mishev
Spectrometer: MAYP115646
Trigger mode: 0
Integration Time (sec): 5,000000E-2
Scans to average: 1
Electric dark correction enabled: true
Nonlinearity correction enabled: false
Boxcar width: 0
XAxis mode: Wavelengths
Number of Pixels in Spectrum: 2068
>>>>>Begin Spectral Data<<<<<
199,511	783,67
199,981	-142,33
200,452	24,67
200,923	-7,33
201,394	65,67
201,865	63,67
202,335	79,67
202,806	64,67
203,277	86,67
203,748	88,67
204,218	74,67
204,689	107,67
205,159	74,67
205,63	81,67
206,101	76,67
206,571	85,67
207,042	71,67
207,512	83,67
207,983	76,67
208,453	62,67
208,923	77,67
209,394	104,67
209,864	81,67
210,335	91,67
210,805	84,67
211,275	83,67
211,745	83,67
212,216	95,67
212,686	87,67
213,156	85,67
213,626	99,67
214,096	94,67
214,566	106,67
215,037	100,67
215,507	87,67
215,977	96,67
216,447	89,67
216,917	101,67
217,387	83,67
217,857	88,67
218,326	99,67
218,796	101,67
219,266	81,67
219,736	83,67
220,206	118,67
220,676	101,67
221,145	90,67
221,615	132,67
222,085	93,67
222,555	104,67
223,024	105,67
223,494	100,67
223,964	104,67
224,433	107,67
224,903	112,67
225,372	91,67
225,842	101,67
226,311	111,67
226,781	94,67
227,25	91,67
227,72	116,67
228,189	109,67
228,658	116,67
229,128	106,67
229,597	112,67
230,066	93,67
230,536	83,67
231,005	110,67
231,474	117,67
231,943	105,67
232,412	122,67
232,881	120,67
233,351	97,67
233,82	115,67
234,289	111,67
234,758	86,67
235,227	102,67
235,696	95,67
236,165	105,67
236,634	107,67
237,103	94,67
237,572	94,67
238,04	101,67
238,509	90,67
238,978	82,67
239,447	106,67
239,916	122,67
240,384	98,67
240,853	98,67
241,322	94,67
241,79	97,67
242,259	97,67
242,728	127,67
243,196	104,67
243,665	103,67
244,133	102,67
244,602	74,67
245,07	102,67
245,539	101,67
246,007	102,67
246,476	131,67
246,944	104,67
247,413	119,67
247,881	79,67
248,349	95,67
248,817	101,67
249,286	101,67
249,754	99,67
250,222	98,67
250,69	98,67
251,159	98,67
251,627	110,67
252,095	99,67
252,563	108,67
253,031	114,67
253,499	109,67
253,967	102,67
254,435	114,67
254,903	128,67
255,371	115,67
255,839	124,67
256,307	91,67
256,775	125,67
257,242	112,67
257,71	103,67
258,178	103,67
258,646	102,67
259,114	101,67
259,581	123,67
260,049	96,67
260,517	102,67
260,984	121,67
261,452	89,67
261,919	98,67
262,387	86,67
262,855	96,67
263,322	81,67
263,79	115,67
264,257	100,67
264,724	98,67
265,192	100,67
265,659	116,67
266,127	103,67
266,594	114,67
267,061	118,67
267,529	114,67
267,996	114,67
268,463	106,67
268,93	104,67
269,397	89,67
269,865	94,67
270,332	104,67
270,799	112,67
271,266	121,67
271,733	113,67
272,2	102,67
272,667	111,67
273,134	104,67
273,601	109,67
274,068	102,67
274,535	83,67
275,002	122,67
275,469	103,67
275,935	106,67
276,402	103,67
276,869	124,67
277,336	118,67
277,802	114,67
278,269	118,67
278,736	112,67
279,203	106,67
279,669	127,67
280,136	107,67
280,602	104,67
281,069	99,67
281,535	100,67
282,002	112,67
282,468	105,67
282,935	95,67
283,401	108,67
283,868	93,67
284,334	116,67
284,8	102,67
285,267	107,67
285,733	112,67
286,199	123,67
286,666	90,67
287,132	99,67
287,598	110,67
288,064	104,67
288,53	97,67
288,996	99,67
289,463	94,67
289,929	104,67
290,395	94,67
290,861	90,67
291,327	94,67
291,793	106,67
292,259	105,67
292,725	104,67
293,19	75,67
293,656	119,67
294,122	92,67
294,588	106,67
295,054	103,67
295,52	111,67
295,985	108,67
296,451	74,67
296,917	101,67
297,382	85,67
297,848	108,67
298,314	113,67
298,779	97,67
299,245	112,67
299,71	104,67
300,176	107,67
300,641	90,67
301,107	114,67
301,572	112,67
302,038	109,67
302,503	94,67
302,968	105,67
303,434	111,67
303,899	105,67
304,364	138,67
304,83	105,67
305,295	97,67
305,76	106,67
306,225	114,67
306,69	117,67
307,156	97,67
307,621	93,67
308,086	113,67
308,551	104,67
309,016	92,67
309,481	107,67
309,946	88,67
310,411	104,67
310,876	105,67
311,341	95,67
311,806	94,67
312,27	107,67
312,735	95,67
313,2	95,67
313,665	96,67
314,13	129,67
314,594	102,67
315,059	84,67
315,524	94,67
315,988	126,67
316,453	102,67
316,918	98,67
317,382	94,67
317,847	103,67
318,311	111,67
318,776	103,67
319,24	103,67
319,705	92,67
320,169	120,67
320,634	92,67
321,098	120,67
321,562	121,67
322,027	112,67
322,491	93,67
322,955	102,67
323,419	113,67
323,884	97,67
324,348	116,67
324,812	106,67
325,276	92,67
325,74	93,67
326,204	110,67
326,668	91,67
327,132	100,67
327,596	91,67
328,06	108,67
328,524	119,67
328,988	90,67
329,452	98,67
329,916	105,67
330,38	106,67
330,844	96,67
331,308	107,67
331,771	104,67
332,235	102,67
332,699	96,67
333,163	89,67
333,626	113,67
334,09	81,67
334,554	102,67
335,017	98,67
335,481	99,67
335,944	126,67
336,408	92,67
336,871	98,67
337,335	87,67
337,798	90,67
338,262	96,67
338,725	126,67
339,188	102,67
339,652	93,67
340,115	110,67
340,578	106,67
341,042	100,67
341,505	95,67
341,968	100,67
342,431	156,67
342,895	91,67
343,358	98,67
343,821	88,67
344,284	98,67
344,747	118,67
345,21	91,67
345,673	105,67
346,136	106,67
346,599	109,67
347,062	103,67
347,525	102,67
347,988	115,67
348,451	96,67
348,913	96,67
349,376	125,67
349,839	96,67
350,302	109,67
350,765	108,67
351,227	135,67
351,69	110,67
352,153	95,67
352,615	104,67
353,078	108,67
353,54	112,67
354,003	112,67
354,465	88,67
354,928	87,67
355,39	86,67
355,853	109,67
356,315	107,67
356,778	102,67
357,24	112,67
357,702	115,67
358,165	110,67
358,627	116,67
359,089	100,67
359,552	92,67
360,014	100,67
360,476	114,67
360,938	83,67
361,4	117,67
361,862	104,67
362,325	99,67
362,787	101,67
363,249	107,67
363,711	98,67
364,173	113,67
364,635	88,67
365,097	82,67
365,558	122,67
366,02	101,67
366,482	119,67
366,944	91,67
367,406	104,67
367,868	116,67
368,329	98,67
368,791	86,67
369,253	101,67
369,714	94,67
370,176	104,67
370,638	97,67
371,099	100,67
371,561	109,67
372,022	83,67
372,484	103,67
372,945	114,67
373,407	93,67
373,868	96,67
374,33	98,67
374,791	99,67
375,253	101,67
375,714	108,67
376,175	114,67
376,637	103,67
377,098	115,67
377,559	89,67
378,02	110,67
378,481	95,67
378,943	100,67
379,404	86,67
379,865	96,67
380,326	118,67
380,787	114,67
381,248	84,67
381,709	93,67
382,17	104,67
382,631	112,67
383,092	101,67
383,553	105,67
384,014	120,67
384,474	85,67
384,935	104,67
385,396	91,67
385,857	86,67
386,318	102,67
386,778	114,67
387,239	102,67
387,7	109,67
388,16	79,67
388,621	80,67
389,082	110,67
389,542	92,67
390,003	127,67
390,463	102,67
390,924	105,67
391,384	108,67
391,845	104,67
392,305	95,67
392,765	122,67
393,226	95,67
393,686	98,67
394,146	99,67
394,607	93,67
395,067	108,67
395,527	93,67
395,987	101,67
396,447	103,67
396,908	91,67
397,368	98,67
397,828	100,67
398,288	102,67
398,748	114,67
399,208	103,67
399,668	103,67
400,128	118,67
400,588	117,67
401,048	131,67
401,508	105,67
401,968	112,67
402,427	92,67
402,887	94,67
403,347	119,67
403,807	102,67
404,266	88,67
404,726	132,67
405,186	115,67
405,645	106,67
406,105	107,67
406,565	100,67
407,024	97,67
407,484	118,67
407,943	117,67
408,403	117,67
408,862	113,67
409,322	130,67
409,781	137,67
410,241	126,67
410,7	139,67
411,159	130,67
411,619	153,67
412,078	134,67
412,537	142,67
412,996	161,67
413,456	157,67
413,915	144,67
414,374	165,67
414,833	174,67
415,292	161,67
415,751	170,67
416,21	213,67
416,669	199,67
417,128	194,67
417,587	200,67
418,046	208,67
418,505	215,67
418,964	249,67
419,423	241,67
419,882	258,67
420,341	314,67
420,799	274,67
421,258	318,67
421,717	320,67
422,176	336,67
422,634	342,67
423,093	346,67
423,552	365,67
424,01	379,67
424,469	369,67
424,927	434,67
425,386	463,67
425,844	491,67
426,303	493,67
426,761	518,67
427,22	562,67
427,678	585,67
428,137	618,67
428,595	630,67
429,053	678,67
429,512	726,67
429,97	740,67
430,428	754,67
430,886	840,67
431,344	822,67
431,803	873,67
432,261	902,67
432,719	947,67
433,177	955,67
433,635	1014,67
434,093	1066,67
434,551	1132,67
435,009	1174,67
435,467	1216,67
435,925	1310,67
436,383	1387,67
436,841	1444,67
437,299	1522,67
437,756	1601,67
438,214	1634,67
438,672	1740,67
439,13	1904,67
439,587	2002,67
440,045	2097,67
440,503	2124,67
440,96	2305,67
441,418	2332,67
441,876	2488,67
442,333	2602,67
442,791	2663,67
443,248	2751,67
443,706	2863,67
444,163	2923,67
444,621	2938,67
445,078	3008,67
445,535	2964,67
445,993	3070,67
446,45	2995,67
446,907	2932,67
447,365	2851,67
447,822	2896,67
448,279	2782,67
448,736	2677,67
449,193	2519,67
449,651	2485,67
450,108	2378,67
450,565	2230,67
451,022	2136,67
451,479	1980,67
451,936	1849,67
452,393	1724,67
452,85	1649,67
453,307	1552,67
453,764	1474,67
454,221	1392,67
454,677	1313,67
455,134	1240,67
455,591	1206,67
456,048	1162,67
456,505	1102,67
456,961	1078,67
457,418	1051,67
457,875	1012,67
458,331	1006,67
458,788	965,67
459,244	918,67
459,701	947,67
460,158	932,67
460,614	870,67
461,071	860,67
461,527	798,67
461,983	827,67
462,44	743,67
462,896	750,67
463,353	720,67
463,809	724,67
464,265	690,67
464,721	654,67
465,178	643,67
465,634	639,67
466,09	578,67
466,546	571,67
467,002	585,67
467,458	567,67
467,915	502,67
468,371	477,67
468,827	522,67
469,283	463,67
469,739	459,67
470,195	447,67
470,651	441,67
471,106	423,67
471,562	410,67
472,018	402,67
472,474	402,67
472,93	399,67
473,386	403,67
473,841	411,67
474,297	365,67
474,753	376,67
475,208	391,67
475,664	353,67
476,12	362,67
476,575	371,67
477,031	374,67
477,486	376,67
477,942	362,67
478,397	358,67
478,853	366,67
479,308	363,67
479,763	357,67
480,219	353,67
480,674	334,67
481,13	324,67
481,585	351,67
482,04	357,67
482,495	356,67
482,951	349,67
483,406	330,67
483,861	336,67
484,316	373,67
484,771	314,67
485,226	370,67
485,681	341,67
486,136	378,67
486,591	334,67
487,046	398,67
487,501	364,67
487,956	406,67
488,411	422,67
488,866	383,67
489,321	412,67
489,775	403,67
490,23	407,67
490,685	432,67
491,14	475,67
491,594	451,67
492,049	476,67
492,504	475,67
492,958	463,67
493,413	533,67
493,868	538,67
494,322	545,67
494,777	558,67
495,231	563,67
495,686	568,67
496,14	612,67
496,594	626,67
497,049	642,67
497,503	658,67
497,958	702,67
498,412	711,67
498,866	710,67
499,32	765,67
499,775	788,67
500,229	793,67
500,683	786,67
501,137	885,67
501,591	870,67
502,045	914,67
502,499	926,67
502,953	940,67
503,407	920,67
503,861	958,67
504,315	992,67
504,769	1055,67
505,223	1072,67
505,677	1108,67
506,131	1112,67
506,585	1145,67
507,039	1168,67
507,492	1206,67
507,946	1262,67
508,4	1238,67
508,854	1309,67
509,307	1316,67
509,761	1316,67
510,214	1393,67
510,668	1395,67
511,122	1457,67
511,575	1467,67
512,029	1505,67
512,482	1503,67
512,936	1541,67
513,389	1596,67
513,842	1655,67
514,296	1656,67
514,749	1696,67
515,202	1693,67
515,656	1782,67
516,109	1762,67
516,562	1824,67
517,015	1823,67
517,469	1888,67
517,922	1847,67
518,375	1912,67
518,828	1966,67
519,281	1983,67
519,734	2010,67
520,187	2027,67
520,64	2022,67
521,093	2057,67
521,546	2124,67
521,999	2134,67
522,452	2172,67
522,905	2242,67
523,358	2232,67
523,81	2279,67
524,263	2231,67
524,716	2309,67
525,169	2352,67
525,621	2363,67
526,074	2342,67
526,527	2396,67
526,979	2415,67
527,432	2408,67
527,884	2484,67
528,337	2467,67
528,789	2440,67
529,242	2537,67
529,694	2566,67
530,147	2575,67
530,599	2596,67
531,052	2616,67
531,504	2639,67
531,956	2645,67
532,409	2626,67
532,861	2742,67
533,313	2702,67
533,765	2676,67
534,218	2771,67
534,67	2746,67
535,122	2775,67
535,574	2797,67
536,026	2781,67
536,478	2819,67
536,93	2829,67
537,382	2868,67
537,834	2882,67
538,286	2905,67
538,738	2895,67
539,19	2885,67
539,642	2956,67
540,094	2979,67
540,545	2994,67
540,997	3026,67
541,449	3088,67
541,901	2993,67
542,352	3106,67
542,804	3018,67
543,256	3095,67
543,707	3079,67
544,159	3068,67
544,611	3194,67
545,062	3171,67
545,514	3272,67
545,965	3228,67
546,417	3215,67
546,868	3201,67
547,319	3231,67
547,771	3306,67
548,222	3335,67
548,674	3303,67
549,125	3259,67
549,576	3338,67
550,027	3306,67
550,479	3303,67
550,93	3393,67
551,381	3373,67
551,832	3392,67
552,283	3406,67
552,734	3434,67
553,185	3418,67
553,636	3411,67
554,087	3453,67
554,538	3493,67
554,989	3497,67
555,44	3458,67
555,891	3546,67
556,342	3515,67
556,793	3555,67
557,244	3609,67
557,694	3551,67
558,145	3635,67
558,596	3571,67
559,047	3621,67
559,497	3642,67
559,948	3709,67
560,399	3669,67
560,849	3675,67
561,3	3704,67
561,75	3721,67
562,201	3764,67
562,651	3753,67
563,102	3746,67
563,552	3794,67
564,003	3814,67
564,453	3739,67
564,903	3728,67
565,354	3805,67
565,804	3850,67
566,254	3827,67
566,705	3930,67
567,155	3876,67
567,605	3911,67
568,055	3876,67
568,505	3884,67
568,955	3866,67
569,405	3931,67
569,856	3936,67
570,306	3926,67
570,756	3954,67
571,206	3932,67
571,656	3994,67
572,105	4000,67
572,555	3959,67
573,005	4015,67
573,455	4070,67
573,905	4017,67
574,355	4082,67
574,804	4082,67
575,254	4055,67
575,704	4006,67
576,154	4074,67
576,603	4054,67
577,053	4055,67
577,502	4129,67
577,952	4065,67
578,402	4042,67
578,851	4077,67
579,301	4125,67
579,75	4106,67
580,199	4078,67
580,649	4175,67
581,098	4151,67
581,548	4087,67
581,997	4055,67
582,446	4134,67
582,895	4098,67
583,345	4158,67
583,794	4100,67
584,243	3999,67
584,692	4179,67
585,141	4103,67
585,591	4072,67
586,04	4083,67
586,489	4036,67
586,938	4136,67
587,387	4104,67
587,836	4106,67
588,285	4180,67
588,734	4078,67
589,182	4046,67
589,631	4012,67
590,08	4032,67
590,529	4007,67
590,978	4057,67
591,426	4088,67
591,875	4008,67
592,324	4064,67
592,773	4131,67
593,221	3923,67
593,67	3990,67
594,118	3930,67
594,567	3913,67
595,016	3922,67
595,464	3987,67
595,913	3938,67
596,361	3977,67
596,809	3921,67
597,258	3850,67
597,706	3854,67
598,155	3904,67
598,603	3850,67
599,051	3776,67
599,499	3798,67
599,948	3866,67
600,396	3810,67
600,844	3786,67
601,292	3771,67
601,74	3784,67
602,188	3796,67
602,636	3736,67
603,085	3779,67
603,533	3769,67
603,981	3723,67
604,429	3735,67
604,876	3649,67
605,324	3667,67
605,772	3647,67
606,22	3666,67
606,668	3566,67
607,116	3631,67
607,563	3600,67
608,011	3563,67
608,459	3564,67
608,907	3504,67
609,354	3488,67
609,802	3522,67
610,25	3475,67
610,697	3467,67
611,145	3447,67
611,592	3498,67
612,04	3393,67
612,487	3354,67
612,935	3374,67
613,382	3358,67
613,829	3334,67
614,277	3257,67
614,724	3299,67
615,171	3292,67
615,619	3286,67
616,066	3263,67
616,513	3298,67
616,96	3250,67
617,408	3193,67
617,855	3182,67
618,302	3208,67
618,749	3099,67
619,196	3105,67
619,643	3089,67
620,09	3088,67
620,537	3152,67
620,984	3063,67
621,431	3020,67
621,878	3017,67
622,325	2937,67
622,771	2933,67
623,218	3013,67
623,665	2926,67
624,112	2916,67
624,559	2855,67
625,005	2900,67
625,452	2859,67
625,899	2873,67
626,345	2727,67
626,792	2768,67
627,238	2744,67
627,685	2720,67
628,131	2677,67
628,578	2683,67
629,024	2666,67
629,471	2594,67
629,917	2548,67
630,364	2596,67
630,81	2566,67
631,256	2584,67
631,703	2574,67
632,149	2533,67
632,595	2471,67
633,041	2513,67
633,487	2458,67
633,934	2485,67
634,38	2408,67
634,826	2394,67
635,272	2402,67
635,718	2320,67
636,164	2332,67
636,61	2264,67
637,056	2251,67
637,502	2296,67
637,948	2295,67
638,394	2309,67
638,839	2177,67
639,285	2180,67
639,731	2186,67
640,177	2160,67
640,623	2155,67
641,068	2108,67
641,514	2075,67
641,96	2054,67
642,405	2075,67
642,851	2006,67
643,296	2051,67
643,742	2010,67
644,187	1978,67
644,633	1948,67
645,078	1968,67
645,524	1959,67
645,969	1946,67
646,415	1932,67
646,86	1890,67
647,305	1831,67
647,751	1876,67
648,196	1826,67
648,641	1785,67
649,086	1792,67
649,532	1766,67
649,977	1787,67
650,422	1726,67
650,867	1732,67
651,312	1672,67
651,757	1682,67
652,202	1698,67
652,647	1652,67
653,092	1701,67
653,537	1666,67
653,982	1635,67
654,427	1589,67
654,872	1601,67
655,316	1610,67
655,761	1537,67
656,206	1525,67
656,651	1501,67
657,096	1463,67
657,54	1467,67
657,985	1534,67
658,43	1486,67
658,874	1442,67
659,319	1423,67
659,763	1427,67
660,208	1378,67
660,652	1375,67
661,097	1406,67
661,541	1359,67
661,986	1342,67
662,43	1339,67
662,874	1351,67
663,319	1254,67
663,763	1294,67
664,207	1278,67
664,651	1260,67
665,096	1199,67
665,54	1233,67
665,984	1213,67
666,428	1225,67
666,872	1222,67
667,316	1201,67
667,76	1179,67
668,204	1138,67
668,648	1186,67
669,092	1134,67
669,536	1156,67
669,98	1128,67
670,424	1098,67
670,868	1096,67
671,312	1091,67
671,756	1102,67
672,199	1074,67
672,643	1028,67
673,087	1044,67
673,531	1050,67
673,974	1019,67
674,418	1015,67
674,862	1041,67
675,305	998,67
675,749	1018,67
676,192	965,67
676,636	979,67
677,079	958,67
677,523	934,67
677,966	950,67
678,409	924,67
678,853	904,67
679,296	934,67
679,739	888,67
680,183	922,67
680,626	888,67
681,069	885,67
681,512	865,67
681,955	843,67
682,399	896,67
682,842	854,67
683,285	859,67
683,728	854,67
684,171	851,67
684,614	823,67
685,057	809,67
685,5	809,67
685,943	777,67
686,386	774,67
686,828	756,67
687,271	769,67
687,714	763,67
688,157	795,67
688,6	734,67
689,042	730,67
689,485	743,67
689,928	697,67
690,37	685,67
690,813	701,67
691,255	734,67
691,698	725,67
692,141	709,67
692,583	702,67
693,025	704,67
693,468	677,67
693,91	679,67
694,353	677,67
694,795	698,67
695,237	684,67
695,68	659,67
696,122	685,67
696,564	679,67
697,006	674,67
697,449	675,67
697,891	654,67
698,333	684,67
698,775	619,67
699,217	643,67
699,659	646,67
700,101	642,67
700,543	648,67
700,985	626,67
701,427	617,67
701,869	618,67
702,311	607,67
702,753	608,67
703,195	646,67
703,636	620,67
704,078	612,67
704,52	598,67
704,962	610,67
705,403	642,67
705,845	635,67
706,286	606,67
706,728	591,67
707,17	591,67
707,611	592,67
708,053	597,67
708,494	595,67
708,936	594,67
709,377	564,67
709,819	557,67
710,26	553,67
710,701	532,67
711,143	558,67
711,584	527,67
712,025	592,67
712,466	545,67
712,908	573,67
713,349	520,67
713,79	542,67
714,231	546,67
714,672	523,67
715,113	529,67
715,554	490,67
715,995	498,67
716,436	498,67
716,877	490,67
717,318	506,67
717,759	446,67
718,2	457,67
718,641	471,67
719,082	484,67
719,522	445,67
719,963	478,67
720,404	457,67
720,844	438,67
721,285	458,67
721,726	432,67
722,166	439,67
722,607	438,67
723,048	454,67
723,488	428,67
723,929	411,67
724,369	401,67
724,81	422,67
725,25	408,67
725,69	418,67
726,131	387,67
726,571	418,67
727,011	393,67
727,452	394,67
727,892	391,67
728,332	409,67
728,772	403,67
729,212	390,67
729,653	390,67
730,093	406,67
730,533	368,67
730,973	382,67
731,413	386,67
731,853	381,67
732,293	358,67
732,733	382,67
733,173	354,67
733,613	373,67
734,052	368,67
734,492	379,67
734,932	341,67
735,372	363,67
735,812	328,67
736,251	329,67
736,691	341,67
737,131	387,67
737,57	340,67
738,01	362,67
738,449	319,67
738,889	330,67
739,329	327,67
739,768	331,67
740,208	315,67
740,647	308,67
741,086	339,67
741,526	296,67
741,965	313,67
742,404	323,67
742,844	326,67
743,283	290,67
743,722	306,67
744,161	311,67
744,601	322,67
745,04	295,67
745,479	310,67
745,918	271,67
746,357	290,67
746,796	276,67
747,235	283,67
747,674	296,67
748,113	258,67
748,552	289,67
748,991	264,67
749,43	265,67
749,869	275,67
750,307	281,67
750,746	279,67
751,185	259,67
751,624	292,67
752,062	254,67
752,501	282,67
752,94	269,67
