Data from 135_MAYP1156461__4__21.txt Node

Date: Fri Sep 01 15:00:40 MSK 2023
User: mishev
Spectrometer: MAYP115646
Trigger mode: 0
Integration Time (sec): 5,000000E-2
Scans to average: 1
Electric dark correction enabled: true
Nonlinearity correction enabled: false
Boxcar width: 0
XAxis mode: Wavelengths
Number of Pixels in Spectrum: 2068
>>>>>Begin Spectral Data<<<<<
199,511	779,67
199,981	-135,33
200,452	23,67
200,923	-9,33
201,394	52,67
201,865	68,67
202,335	76,67
202,806	69,67
203,277	75,67
203,748	70,67
204,218	73,67
204,689	103,67
205,159	74,67
205,63	83,67
206,101	84,67
206,571	68,67
207,042	80,67
207,512	76,67
207,983	67,67
208,453	67,67
208,923	74,67
209,394	95,67
209,864	66,67
210,335	75,67
210,805	68,67
211,275	80,67
211,745	82,67
212,216	92,67
212,686	88,67
213,156	82,67
213,626	90,67
214,096	93,67
214,566	88,67
215,037	100,67
215,507	92,67
215,977	83,67
216,447	90,67
216,917	88,67
217,387	104,67
217,857	88,67
218,326	82,67
218,796	91,67
219,266	82,67
219,736	84,67
220,206	109,67
220,676	98,67
221,145	82,67
221,615	109,67
222,085	87,67
222,555	100,67
223,024	101,67
223,494	95,67
223,964	102,67
224,433	107,67
224,903	105,67
225,372	97,67
225,842	97,67
226,311	106,67
226,781	103,67
227,25	91,67
227,72	105,67
228,189	93,67
228,658	112,67
229,128	99,67
229,597	93,67
230,066	100,67
230,536	70,67
231,005	101,67
231,474	99,67
231,943	97,67
232,412	105,67
232,881	110,67
233,351	89,67
233,82	103,67
234,289	100,67
234,758	90,67
235,227	88,67
235,696	80,67
236,165	95,67
236,634	94,67
237,103	93,67
237,572	101,67
238,04	87,67
238,509	99,67
238,978	82,67
239,447	114,67
239,916	97,67
240,384	98,67
240,853	100,67
241,322	94,67
241,79	94,67
242,259	97,67
242,728	113,67
243,196	78,67
243,665	96,67
244,133	106,67
244,602	93,67
245,07	93,67
245,539	87,67
246,007	96,67
246,476	116,67
246,944	95,67
247,413	93,67
247,881	86,67
248,349	95,67
248,817	103,67
249,286	94,67
249,754	115,67
250,222	93,67
250,69	90,67
251,159	90,67
251,627	106,67
252,095	91,67
252,563	88,67
253,031	108,67
253,499	99,67
253,967	105,67
254,435	98,67
254,903	106,67
255,371	102,67
255,839	122,67
256,307	85,67
256,775	109,67
257,242	90,67
257,71	102,67
258,178	94,67
258,646	105,67
259,114	90,67
259,581	130,67
260,049	85,67
260,517	89,67
260,984	124,67
261,452	87,67
261,919	84,67
262,387	82,67
262,855	108,67
263,322	96,67
263,79	108,67
264,257	86,67
264,724	96,67
265,192	103,67
265,659	105,67
266,127	97,67
266,594	114,67
267,061	97,67
267,529	99,67
267,996	111,67
268,463	105,67
268,93	97,67
269,397	86,67
269,865	101,67
270,332	99,67
270,799	84,67
271,266	99,67
271,733	104,67
272,2	104,67
272,667	104,67
273,134	92,67
273,601	107,67
274,068	100,67
274,535	83,67
275,002	127,67
275,469	95,67
275,935	90,67
276,402	96,67
276,869	103,67
277,336	109,67
277,802	97,67
278,269	109,67
278,736	98,67
279,203	90,67
279,669	114,67
280,136	106,67
280,602	105,67
281,069	97,67
281,535	99,67
282,002	98,67
282,468	89,67
282,935	93,67
283,401	92,67
283,868	94,67
284,334	107,67
284,8	102,67
285,267	107,67
285,733	104,67
286,199	105,67
286,666	89,67
287,132	90,67
287,598	98,67
288,064	90,67
288,53	106,67
288,996	94,67
289,463	78,67
289,929	112,67
290,395	89,67
290,861	80,67
291,327	91,67
291,793	91,67
292,259	107,67
292,725	109,67
293,19	79,67
293,656	113,67
294,122	83,67
294,588	99,67
295,054	98,67
295,52	100,67
295,985	111,67
296,451	80,67
296,917	89,67
297,382	85,67
297,848	101,67
298,314	108,67
298,779	101,67
299,245	111,67
299,71	99,67
300,176	106,67
300,641	101,67
301,107	91,67
301,572	93,67
302,038	85,67
302,503	104,67
302,968	101,67
303,434	89,67
303,899	96,67
304,364	124,67
304,83	104,67
305,295	91,67
305,76	87,67
306,225	106,67
306,69	114,67
307,156	88,67
307,621	104,67
308,086	103,67
308,551	110,67
309,016	92,67
309,481	104,67
309,946	82,67
310,411	96,67
310,876	100,67
311,341	112,67
311,806	82,67
312,27	96,67
312,735	92,67
313,2	94,67
313,665	88,67
314,13	106,67
314,594	92,67
315,059	86,67
315,524	89,67
315,988	117,67
316,453	84,67
316,918	94,67
317,382	99,67
317,847	100,67
318,311	105,67
318,776	103,67
319,24	106,67
319,705	94,67
320,169	123,67
320,634	88,67
321,098	100,67
321,562	121,67
322,027	99,67
322,491	82,67
322,955	102,67
323,419	103,67
323,884	100,67
324,348	125,67
324,812	109,67
325,276	98,67
325,74	90,67
326,204	96,67
326,668	92,67
327,132	100,67
327,596	77,67
328,06	106,67
328,524	100,67
328,988	81,67
329,452	86,67
329,916	104,67
330,38	123,67
330,844	93,67
331,308	99,67
331,771	91,67
332,235	98,67
332,699	92,67
333,163	100,67
333,626	90,67
334,09	81,67
334,554	100,67
335,017	96,67
335,481	95,67
335,944	118,67
336,408	89,67
336,871	103,67
337,335	84,67
337,798	92,67
338,262	92,67
338,725	105,67
339,188	79,67
339,652	74,67
340,115	106,67
340,578	114,67
341,042	96,67
341,505	84,67
341,968	100,67
342,431	183,67
342,895	75,67
343,358	102,67
343,821	79,67
344,284	87,67
344,747	97,67
345,21	80,67
345,673	102,67
346,136	90,67
346,599	102,67
347,062	103,67
347,525	88,67
347,988	110,67
348,451	105,67
348,913	79,67
349,376	93,67
349,839	86,67
350,302	87,67
350,765	80,67
351,227	121,67
351,69	93,67
352,153	90,67
352,615	79,67
353,078	110,67
353,54	97,67
354,003	95,67
354,465	101,67
354,928	89,67
355,39	75,67
355,853	104,67
356,315	80,67
356,778	106,67
357,24	106,67
357,702	119,67
358,165	108,67
358,627	99,67
359,089	107,67
359,552	103,67
360,014	89,67
360,476	100,67
360,938	94,67
361,4	87,67
361,862	90,67
362,325	98,67
362,787	86,67
363,249	99,67
363,711	96,67
364,173	116,67
364,635	89,67
365,097	79,67
365,558	115,67
366,02	96,67
366,482	108,67
366,944	86,67
367,406	102,67
367,868	108,67
368,329	87,67
368,791	86,67
369,253	88,67
369,714	88,67
370,176	108,67
370,638	81,67
371,099	92,67
371,561	96,67
372,022	75,67
372,484	86,67
372,945	107,67
373,407	106,67
373,868	96,67
374,33	93,67
374,791	84,67
375,253	93,67
375,714	77,67
376,175	106,67
376,637	86,67
377,098	108,67
377,559	91,67
378,02	99,67
378,481	99,67
378,943	92,67
379,404	89,67
379,865	91,67
380,326	92,67
380,787	110,67
381,248	93,67
381,709	100,67
382,17	97,67
382,631	105,67
383,092	95,67
383,553	102,67
384,014	105,67
384,474	81,67
384,935	115,67
385,396	77,67
385,857	76,67
386,318	101,67
386,778	98,67
387,239	89,67
387,7	95,67
388,16	76,67
388,621	81,67
389,082	107,67
389,542	86,67
390,003	102,67
390,463	91,67
390,924	109,67
391,384	110,67
391,845	108,67
392,305	89,67
392,765	109,67
393,226	91,67
393,686	94,67
394,146	103,67
394,607	94,67
395,067	100,67
395,527	85,67
395,987	96,67
396,447	102,67
396,908	87,67
397,368	99,67
397,828	86,67
398,288	108,67
398,748	109,67
399,208	100,67
399,668	101,67
400,128	92,67
400,588	118,67
401,048	115,67
401,508	97,67
401,968	112,67
402,427	87,67
402,887	103,67
403,347	115,67
403,807	106,67
404,266	92,67
404,726	110,67
405,186	115,67
405,645	114,67
406,105	108,67
406,565	115,67
407,024	96,67
407,484	109,67
407,943	116,67
408,403	112,67
408,862	103,67
409,322	130,67
409,781	141,67
410,241	123,67
410,7	138,67
411,159	138,67
411,619	143,67
412,078	144,67
412,537	156,67
412,996	171,67
413,456	164,67
413,915	152,67
414,374	178,67
414,833	178,67
415,292	187,67
415,751	191,67
416,21	246,67
416,669	213,67
417,128	233,67
417,587	230,67
418,046	237,67
418,505	263,67
418,964	281,67
419,423	264,67
419,882	314,67
420,341	364,67
420,799	338,67
421,258	380,67
421,717	386,67
422,176	391,67
422,634	426,67
423,093	455,67
423,552	471,67
424,01	500,67
424,469	517,67
424,927	556,67
425,386	604,67
425,844	667,67
426,303	638,67
426,761	699,67
427,22	753,67
427,678	778,67
428,137	807,67
428,595	861,67
429,053	951,67
429,512	947,67
429,97	1036,67
430,428	1070,67
430,886	1092,67
431,344	1176,67
431,803	1234,67
432,261	1273,67
432,719	1323,67
433,177	1373,67
433,635	1425,67
434,093	1558,67
434,551	1601,67
435,009	1641,67
435,467	1737,67
435,925	1816,67
436,383	1907,67
436,841	2040,67
437,299	2122,67
437,756	2208,67
438,214	2365,67
438,672	2515,67
439,13	2595,67
439,587	2696,67
440,045	2835,67
440,503	2945,67
440,96	3122,67
441,418	3302,67
441,876	3398,67
442,333	3442,67
442,791	3646,67
443,248	3682,67
443,706	3774,67
444,163	3836,67
444,621	3932,67
445,078	3920,67
445,535	3872,67
445,993	3889,67
446,45	3786,67
446,907	3796,67
447,365	3666,67
447,822	3628,67
448,279	3490,67
448,736	3302,67
449,193	3242,67
449,651	3003,67
450,108	2946,67
450,565	2763,67
451,022	2507,67
451,479	2479,67
451,936	2284,67
452,393	2165,67
452,85	2028,67
453,307	1905,67
453,764	1760,67
454,221	1669,67
454,677	1586,67
455,134	1561,67
455,591	1418,67
456,048	1419,67
456,505	1332,67
456,961	1254,67
457,418	1225,67
457,875	1178,67
458,331	1135,67
458,788	1152,67
459,244	1079,67
459,701	1058,67
460,158	1049,67
460,614	1028,67
461,071	958,67
461,527	944,67
461,983	929,67
462,44	872,67
462,896	884,67
463,353	790,67
463,809	806,67
464,265	788,67
464,721	722,67
465,178	732,67
465,634	738,67
466,09	648,67
466,546	658,67
467,002	613,67
467,458	626,67
467,915	577,67
468,371	544,67
468,827	502,67
469,283	512,67
469,739	491,67
470,195	484,67
470,651	473,67
471,106	459,67
471,562	446,67
472,018	447,67
472,474	405,67
472,93	399,67
473,386	397,67
473,841	403,67
474,297	387,67
474,753	397,67
475,208	393,67
475,664	404,67
476,12	366,67
476,575	389,67
477,031	376,67
477,486	368,67
477,942	372,67
478,397	368,67
478,853	382,67
479,308	344,67
479,763	365,67
480,219	342,67
480,674	339,67
481,13	338,67
481,585	334,67
482,04	352,67
482,495	342,67
482,951	359,67
483,406	319,67
483,861	370,67
484,316	327,67
484,771	316,67
485,226	385,67
485,681	342,67
486,136	360,67
486,591	360,67
487,046	384,67
487,501	344,67
487,956	367,67
488,411	384,67
488,866	368,67
489,321	391,67
489,775	382,67
490,23	421,67
490,685	404,67
491,14	432,67
491,594	413,67
492,049	430,67
492,504	442,67
492,958	454,67
493,413	475,67
493,868	481,67
494,322	481,67
494,777	487,67
495,231	531,67
495,686	525,67
496,14	567,67
496,594	547,67
497,049	598,67
497,503	597,67
497,958	619,67
498,412	627,67
498,866	630,67
499,32	666,67
499,775	679,67
500,229	715,67
500,683	691,67
501,137	752,67
501,591	768,67
502,045	787,67
502,499	814,67
502,953	816,67
503,407	796,67
503,861	850,67
504,315	839,67
504,769	876,67
505,223	931,67
505,677	942,67
506,131	953,67
506,585	966,67
507,039	972,67
507,492	1032,67
507,946	1025,67
508,4	1047,67
508,854	1072,67
509,307	1134,67
509,761	1128,67
510,214	1169,67
510,668	1155,67
511,122	1164,67
511,575	1198,67
512,029	1220,67
512,482	1218,67
512,936	1275,67
513,389	1298,67
513,842	1309,67
514,296	1332,67
514,749	1362,67
515,202	1387,67
515,656	1356,67
516,109	1375,67
516,562	1409,67
517,015	1471,67
517,469	1442,67
517,922	1474,67
518,375	1472,67
518,828	1486,67
519,281	1539,67
519,734	1584,67
520,187	1562,67
520,64	1630,67
521,093	1602,67
521,546	1555,67
521,999	1663,67
522,452	1660,67
522,905	1672,67
523,358	1686,67
523,81	1678,67
524,263	1709,67
524,716	1682,67
525,169	1742,67
525,621	1810,67
526,074	1772,67
526,527	1822,67
526,979	1813,67
527,432	1815,67
527,884	1814,67
528,337	1820,67
528,789	1874,67
529,242	1900,67
529,694	1901,67
530,147	1862,67
530,599	1856,67
531,052	1910,67
531,504	1870,67
531,956	1984,67
532,409	1896,67
532,861	1992,67
533,313	1984,67
533,765	2001,67
534,218	1981,67
534,67	1979,67
535,122	1964,67
535,574	2007,67
536,026	1975,67
536,478	2006,67
536,93	2034,67
537,382	2029,67
537,834	2051,67
538,286	2010,67
538,738	2060,67
539,19	2066,67
539,642	2116,67
540,094	2104,67
540,545	2078,67
540,997	2107,67
541,449	2073,67
541,901	2071,67
542,352	2120,67
542,804	2110,67
543,256	2125,67
543,707	2145,67
544,159	2101,67
544,611	2069,67
545,062	2064,67
545,514	2057,67
545,965	2048,67
546,417	2122,67
546,868	2056,67
547,319	2083,67
547,771	2107,67
548,222	2077,67
548,674	2106,67
549,125	2130,67
549,576	2070,67
550,027	2089,67
550,479	2088,67
550,93	2056,67
551,381	2077,67
551,832	2076,67
552,283	2062,67
552,734	2064,67
553,185	2034,67
553,636	2056,67
554,087	2000,67
554,538	2038,67
554,989	1995,67
555,44	2030,67
555,891	1965,67
556,342	1992,67
556,793	2004,67
557,244	2004,67
557,694	1982,67
558,145	1986,67
558,596	1953,67
559,047	1957,67
559,497	1969,67
559,948	1969,67
560,399	1954,67
560,849	1930,67
561,3	1933,67
561,75	1890,67
562,201	1980,67
562,651	1872,67
563,102	1916,67
563,552	1930,67
564,003	1861,67
564,453	1901,67
564,903	1930,67
565,354	1916,67
565,804	1878,67
566,254	1873,67
566,705	1892,67
567,155	1866,67
567,605	1860,67
568,055	1849,67
568,505	1889,67
568,955	1868,67
569,405	1860,67
569,856	1858,67
570,306	1844,67
570,756	1868,67
571,206	1836,67
571,656	1822,67
572,105	1853,67
572,555	1792,67
573,005	1798,67
573,455	1830,67
573,905	1766,67
574,355	1802,67
574,804	1757,67
575,254	1726,67
575,704	1780,67
576,154	1782,67
576,603	1764,67
577,053	1751,67
577,502	1762,67
577,952	1778,67
578,402	1764,67
578,851	1744,67
579,301	1722,67
579,75	1728,67
580,199	1740,67
580,649	1720,67
581,098	1725,67
581,548	1721,67
581,997	1700,67
582,446	1719,67
582,895	1705,67
583,345	1659,67
583,794	1655,67
584,243	1668,67
584,692	1643,67
585,141	1625,67
585,591	1681,67
586,04	1628,67
586,489	1654,67
586,938	1687,67
587,387	1602,67
587,836	1655,67
588,285	1618,67
588,734	1602,67
589,182	1616,67
589,631	1604,67
590,08	1602,67
590,529	1605,67
590,978	1549,67
591,426	1567,67
591,875	1575,67
592,324	1519,67
592,773	1549,67
593,221	1501,67
593,67	1527,67
594,118	1476,67
594,567	1548,67
595,016	1496,67
595,464	1466,67
595,913	1529,67
596,361	1507,67
596,809	1468,67
597,258	1476,67
597,706	1479,67
598,155	1468,67
598,603	1385,67
599,051	1416,67
599,499	1435,67
599,948	1383,67
600,396	1419,67
600,844	1403,67
601,292	1353,67
601,74	1395,67
602,188	1366,67
602,636	1342,67
603,085	1346,67
603,533	1366,67
603,981	1328,67
604,429	1375,67
604,876	1330,67
605,324	1354,67
605,772	1316,67
606,22	1280,67
606,668	1280,67
607,116	1270,67
607,563	1284,67
608,011	1255,67
608,459	1277,67
608,907	1307,67
609,354	1262,67
609,802	1230,67
610,25	1221,67
610,697	1223,67
611,145	1237,67
611,592	1222,67
612,04	1222,67
612,487	1210,67
612,935	1170,67
613,382	1252,67
613,829	1159,67
614,277	1150,67
614,724	1201,67
615,171	1146,67
615,619	1139,67
616,066	1122,67
616,513	1152,67
616,96	1123,67
617,408	1108,67
617,855	1088,67
618,302	1081,67
618,749	1084,67
619,196	1095,67
619,643	1072,67
620,09	1062,67
620,537	1065,67
620,984	1007,67
621,431	1023,67
621,878	1022,67
622,325	1009,67
622,771	1047,67
623,218	980,67
623,665	980,67
624,112	1028,67
624,559	1003,67
625,005	973,67
625,452	986,67
625,899	967,67
626,345	988,67
626,792	948,67
627,238	904,67
627,685	940,67
628,131	896,67
628,578	912,67
629,024	897,67
629,471	853,67
629,917	913,67
630,364	880,67
630,81	886,67
631,256	902,67
631,703	854,67
632,149	885,67
632,595	867,67
633,041	853,67
633,487	808,67
633,934	833,67
634,38	821,67
634,826	845,67
635,272	811,67
635,718	777,67
636,164	786,67
636,61	791,67
637,056	802,67
637,502	768,67
637,948	787,67
638,394	754,67
638,839	712,67
639,285	792,67
639,731	743,67
640,177	739,67
640,623	718,67
641,068	727,67
641,514	739,67
641,96	740,67
642,405	707,67
642,851	718,67
643,296	702,67
643,742	695,67
644,187	669,67
644,633	686,67
645,078	692,67
645,524	696,67
645,969	685,67
646,415	664,67
646,86	648,67
647,305	632,67
647,751	662,67
648,196	654,67
648,641	617,67
649,086	627,67
649,532	625,67
649,977	581,67
650,422	627,67
650,867	611,67
651,312	586,67
651,757	607,67
652,202	604,67
652,647	571,67
653,092	560,67
653,537	578,67
653,982	555,67
654,427	560,67
654,872	552,67
655,316	563,67
655,761	542,67
656,206	561,67
656,651	549,67
657,096	549,67
657,54	521,67
657,985	510,67
658,43	548,67
658,874	523,67
659,319	502,67
659,763	514,67
660,208	483,67
660,652	489,67
661,097	485,67
661,541	490,67
661,986	470,67
662,43	500,67
662,874	486,67
663,319	464,67
663,763	462,67
664,207	473,67
664,651	489,67
665,096	448,67
665,54	442,67
665,984	447,67
666,428	436,67
666,872	449,67
667,316	445,67
667,76	438,67
668,204	450,67
668,648	429,67
669,092	429,67
669,536	402,67
669,98	420,67
670,424	411,67
670,868	387,67
671,312	425,67
671,756	407,67
672,199	411,67
672,643	392,67
673,087	386,67
673,531	393,67
673,974	352,67
674,418	389,67
674,862	391,67
675,305	381,67
675,749	396,67
676,192	368,67
676,636	355,67
677,079	362,67
677,523	357,67
677,966	359,67
678,409	340,67
678,853	355,67
679,296	323,67
679,739	347,67
680,183	358,67
680,626	324,67
681,069	332,67
681,512	326,67
681,955	324,67
682,399	331,67
682,842	314,67
683,285	329,67
683,728	352,67
684,171	335,67
684,614	307,67
685,057	303,67
685,5	320,67
685,943	299,67
686,386	284,67
686,828	293,67
687,271	309,67
687,714	305,67
688,157	305,67
688,6	291,67
689,042	285,67
689,485	278,67
689,928	299,67
690,37	297,67
690,813	285,67
691,255	292,67
691,698	287,67
692,141	283,67
692,583	268,67
693,025	275,67
693,468	260,67
693,91	264,67
694,353	276,67
694,795	272,67
695,237	269,67
695,68	254,67
696,122	272,67
696,564	258,67
697,006	255,67
697,449	262,67
697,891	240,67
698,333	275,67
698,775	224,67
699,217	245,67
699,659	261,67
700,101	231,67
700,543	232,67
700,985	243,67
701,427	243,67
701,869	236,67
702,311	240,67
702,753	241,67
703,195	225,67
703,636	226,67
704,078	217,67
704,52	226,67
704,962	224,67
705,403	243,67
705,845	264,67
706,286	218,67
706,728	222,67
707,17	203,67
707,611	227,67
708,053	218,67
708,494	230,67
708,936	238,67
709,377	212,67
709,819	219,67
710,26	212,67
710,701	202,67
711,143	225,67
711,584	190,67
712,025	233,67
712,466	215,67
712,908	212,67
713,349	184,67
713,79	214,67
714,231	206,67
714,672	203,67
715,113	192,67
715,554	198,67
715,995	183,67
716,436	192,67
716,877	172,67
717,318	200,67
717,759	196,67
718,2	177,67
718,641	177,67
719,082	184,67
719,522	172,67
719,963	184,67
720,404	190,67
720,844	193,67
721,285	194,67
721,726	165,67
722,166	159,67
722,607	182,67
723,048	189,67
723,488	170,67
723,929	174,67
724,369	158,67
724,81	175,67
725,25	158,67
725,69	163,67
726,131	176,67
726,571	176,67
727,011	165,67
727,452	165,67
727,892	173,67
728,332	162,67
728,772	159,67
729,212	159,67
729,653	166,67
730,093	177,67
730,533	152,67
730,973	157,67
731,413	165,67
731,853	160,67
732,293	153,67
732,733	171,67
733,173	144,67
733,613	172,67
734,052	169,67
734,492	155,67
734,932	156,67
735,372	153,67
735,812	147,67
736,251	154,67
736,691	157,67
737,131	186,67
737,57	154,67
738,01	133,67
738,449	159,67
738,889	145,67
739,329	152,67
739,768	150,67
740,208	159,67
740,647	146,67
741,086	164,67
741,526	144,67
741,965	133,67
742,404	164,67
742,844	160,67
743,283	141,67
743,722	143,67
744,161	151,67
744,601	153,67
745,04	158,67
745,479	146,67
745,918	133,67
746,357	135,67
746,796	139,67
747,235	133,67
747,674	150,67
748,113	140,67
748,552	131,67
748,991	142,67
749,43	127,67
749,869	146,67
750,307	150,67
750,746	150,67
751,185	139,67
751,624	157,67
752,062	132,67
752,501	144,67
752,94	156,67
753,378	158,67
753,817	161,67
754,255	143,67
754,694	118,67
755,132	136,67
755,571	134,67
756,009	132,67
756,448	139,67
756,886	146,67
757,325	134,67
757,763	121,67
758,201	139,67
