Data from кристалл1_MAYP1156461__1__23.txt Node

Date: Fri Sep 01 15:19:55 MSK 2023
User: mishev
Spectrometer: MAYP115646
Trigger mode: 0
Integration Time (sec): 5,000000E-2
Scans to average: 1
Electric dark correction enabled: true
Nonlinearity correction enabled: false
Boxcar width: 0
XAxis mode: Wavelengths
Number of Pixels in Spectrum: 2068
>>>>>Begin Spectral Data<<<<<
199,511	780,83
199,981	-149,17
200,452	24,83
200,923	-10,17
201,394	58,83
201,865	54,83
202,335	73,83
202,806	71,83
203,277	73,83
203,748	66,83
204,218	70,83
204,689	98,83
205,159	72,83
205,63	76,83
206,101	91,83
206,571	84,83
207,042	85,83
207,512	81,83
207,983	67,83
208,453	69,83
208,923	82,83
209,394	85,83
209,864	68,83
210,335	81,83
210,805	74,83
211,275	85,83
211,745	86,83
212,216	86,83
212,686	83,83
213,156	81,83
213,626	91,83
214,096	84,83
214,566	95,83
215,037	94,83
215,507	89,83
215,977	98,83
216,447	93,83
216,917	79,83
217,387	86,83
217,857	91,83
218,326	80,83
218,796	88,83
219,266	78,83
219,736	72,83
220,206	112,83
220,676	97,83
221,145	81,83
221,615	117,83
222,085	82,83
222,555	88,83
223,024	99,83
223,494	106,83
223,964	97,83
224,433	111,83
224,903	109,83
225,372	82,83
225,842	91,83
226,311	91,83
226,781	93,83
227,25	93,83
227,72	105,83
228,189	104,83
228,658	106,83
229,128	88,83
229,597	104,83
230,066	101,83
230,536	71,83
231,005	92,83
231,474	101,83
231,943	88,83
232,412	116,83
232,881	106,83
233,351	94,83
233,82	104,83
234,289	108,83
234,758	92,83
235,227	95,83
235,696	90,83
236,165	87,83
236,634	90,83
237,103	98,83
237,572	89,83
238,04	98,83
238,509	86,83
238,978	85,83
239,447	96,83
239,916	114,83
240,384	114,83
240,853	108,83
241,322	101,83
241,79	98,83
242,259	108,83
242,728	120,83
243,196	86,83
243,665	106,83
244,133	103,83
244,602	82,83
245,07	91,83
245,539	89,83
246,007	110,83
246,476	109,83
246,944	88,83
247,413	106,83
247,881	68,83
248,349	82,83
248,817	107,83
249,286	110,83
249,754	99,83
250,222	106,83
250,69	103,83
251,159	94,83
251,627	101,83
252,095	84,83
252,563	99,83
253,031	104,83
253,499	83,83
253,967	106,83
254,435	90,83
254,903	110,83
255,371	98,83
255,839	121,83
256,307	99,83
256,775	115,83
257,242	110,83
257,71	99,83
258,178	88,83
258,646	112,83
259,114	102,83
259,581	120,83
260,049	92,83
260,517	77,83
260,984	103,83
261,452	84,83
261,919	95,83
262,387	86,83
262,855	95,83
263,322	79,83
263,79	110,83
264,257	79,83
264,724	98,83
265,192	105,83
265,659	118,83
266,127	88,83
266,594	121,83
267,061	104,83
267,529	106,83
267,996	94,83
268,463	95,83
268,93	101,83
269,397	102,83
269,865	96,83
270,332	99,83
270,799	96,83
271,266	116,83
271,733	105,83
272,2	114,83
272,667	103,83
273,134	95,83
273,601	93,83
274,068	113,83
274,535	74,83
275,002	124,83
275,469	104,83
275,935	93,83
276,402	108,83
276,869	109,83
277,336	106,83
277,802	93,83
278,269	113,83
278,736	104,83
279,203	96,83
279,669	107,83
280,136	108,83
280,602	89,83
281,069	92,83
281,535	88,83
282,002	114,83
282,468	90,83
282,935	90,83
283,401	91,83
283,868	99,83
284,334	101,83
284,8	94,83
285,267	97,83
285,733	98,83
286,199	96,83
286,666	95,83
287,132	85,83
287,598	106,83
288,064	98,83
288,53	95,83
288,996	97,83
289,463	82,83
289,929	101,83
290,395	95,83
290,861	101,83
291,327	77,83
291,793	107,83
292,259	107,83
292,725	111,83
293,19	82,83
293,656	112,83
294,122	83,83
294,588	104,83
295,054	102,83
295,52	92,83
295,985	116,83
296,451	78,83
296,917	82,83
297,382	72,83
297,848	103,83
298,314	102,83
298,779	88,83
299,245	104,83
299,71	106,83
300,176	96,83
300,641	97,83
301,107	100,83
301,572	108,83
302,038	98,83
302,503	103,83
302,968	94,83
303,434	97,83
303,899	100,83
304,364	130,83
304,83	100,83
305,295	96,83
305,76	101,83
306,225	99,83
306,69	110,83
307,156	78,83
307,621	105,83
308,086	119,83
308,551	116,83
309,016	91,83
309,481	102,83
309,946	98,83
310,411	96,83
310,876	108,83
311,341	85,83
311,806	88,83
312,27	98,83
312,735	71,83
313,2	92,83
313,665	87,83
314,13	131,83
314,594	99,83
315,059	83,83
315,524	96,83
315,988	122,83
316,453	88,83
316,918	98,83
317,382	92,83
317,847	78,83
318,311	98,83
318,776	104,83
319,24	91,83
319,705	100,83
320,169	107,83
320,634	93,83
321,098	110,83
321,562	127,83
322,027	98,83
322,491	71,83
322,955	97,83
323,419	104,83
323,884	84,83
324,348	109,83
324,812	100,83
325,276	103,83
325,74	83,83
326,204	110,83
326,668	91,83
327,132	98,83
327,596	82,83
328,06	97,83
328,524	106,83
328,988	95,83
329,452	89,83
329,916	104,83
330,38	103,83
330,844	92,83
331,308	96,83
331,771	97,83
332,235	92,83
332,699	96,83
333,163	90,83
333,626	103,83
334,09	86,83
334,554	97,83
335,017	89,83
335,481	92,83
335,944	117,83
336,408	76,83
336,871	107,83
337,335	83,83
337,798	90,83
338,262	90,83
338,725	123,83
339,188	98,83
339,652	83,83
340,115	111,83
340,578	98,83
341,042	94,83
341,505	96,83
341,968	95,83
342,431	200,83
342,895	76,83
343,358	95,83
343,821	77,83
344,284	96,83
344,747	100,83
345,21	85,83
345,673	97,83
346,136	100,83
346,599	99,83
347,062	102,83
347,525	94,83
347,988	95,83
348,451	96,83
348,913	81,83
349,376	109,83
349,839	80,83
350,302	90,83
350,765	95,83
351,227	132,83
351,69	90,83
352,153	91,83
352,615	100,83
353,078	97,83
353,54	93,83
354,003	95,83
354,465	97,83
354,928	96,83
355,39	102,83
355,853	104,83
356,315	102,83
356,778	105,83
357,24	107,83
357,702	112,83
358,165	97,83
358,627	102,83
359,089	102,83
359,552	88,83
360,014	91,83
360,476	100,83
360,938	74,83
361,4	94,83
361,862	106,83
362,325	83,83
362,787	87,83
363,249	80,83
363,711	99,83
364,173	98,83
364,635	89,83
365,097	83,83
365,558	115,83
366,02	104,83
366,482	113,83
366,944	76,83
367,406	92,83
367,868	102,83
368,329	92,83
368,791	100,83
369,253	92,83
369,714	99,83
370,176	105,83
370,638	88,83
371,099	96,83
371,561	96,83
372,022	90,83
372,484	103,83
372,945	106,83
373,407	88,83
373,868	85,83
374,33	96,83
374,791	106,83
375,253	91,83
375,714	98,83
376,175	103,83
376,637	92,83
377,098	116,83
377,559	94,83
378,02	104,83
378,481	96,83
378,943	96,83
379,404	84,83
379,865	84,83
380,326	86,83
380,787	96,83
381,248	91,83
381,709	91,83
382,17	93,83
382,631	96,83
383,092	93,83
383,553	112,83
384,014	102,83
384,474	81,83
384,935	107,83
385,396	82,83
385,857	80,83
386,318	115,83
386,778	113,83
387,239	99,83
387,7	100,83
388,16	77,83
388,621	79,83
389,082	114,83
389,542	91,83
390,003	106,83
390,463	92,83
390,924	92,83
391,384	109,83
391,845	99,83
392,305	91,83
392,765	107,83
393,226	94,83
393,686	94,83
394,146	111,83
394,607	108,83
395,067	87,83
395,527	90,83
395,987	101,83
396,447	96,83
396,908	83,83
397,368	102,83
397,828	86,83
398,288	92,83
398,748	103,83
399,208	112,83
399,668	84,83
400,128	96,83
400,588	114,83
401,048	108,83
401,508	98,83
401,968	97,83
402,427	90,83
402,887	97,83
403,347	108,83
403,807	99,83
404,266	90,83
404,726	107,83
405,186	110,83
405,645	108,83
406,105	114,83
406,565	108,83
407,024	106,83
407,484	120,83
407,943	112,83
408,403	112,83
408,862	126,83
409,322	109,83
409,781	129,83
410,241	116,83
410,7	131,83
411,159	143,83
411,619	144,83
412,078	124,83
412,537	158,83
412,996	174,83
413,456	159,83
413,915	160,83
414,374	166,83
414,833	190,83
415,292	177,83
415,751	209,83
416,21	231,83
416,669	218,83
417,128	233,83
417,587	222,83
418,046	250,83
418,505	276,83
418,964	290,83
419,423	287,83
419,882	332,83
420,341	359,83
420,799	337,83
421,258	383,83
421,717	405,83
422,176	416,83
422,634	470,83
423,093	477,83
423,552	482,83
424,01	507,83
424,469	553,83
424,927	583,83
425,386	611,83
425,844	683,83
426,303	683,83
426,761	738,83
427,22	815,83
427,678	845,83
428,137	887,83
428,595	919,83
429,053	980,83
429,512	1051,83
429,97	1074,83
430,428	1164,83
430,886	1190,83
431,344	1256,83
431,803	1311,83
432,261	1420,83
432,719	1462,83
433,177	1530,83
433,635	1561,83
434,093	1719,83
434,551	1777,83
435,009	1840,83
435,467	1929,83
435,925	2077,83
436,383	2108,83
436,841	2312,83
437,299	2340,83
437,756	2460,83
438,214	2650,83
438,672	2761,83
439,13	2896,83
439,587	3059,83
440,045	3166,83
440,503	3338,83
440,96	3416,83
441,418	3624,83
441,876	3819,83
442,333	3874,83
442,791	4138,83
443,248	4215,83
443,706	4332,83
444,163	4405,83
444,621	4461,83
445,078	4535,83
445,535	4519,83
445,993	4540,83
446,45	4510,83
446,907	4469,83
447,365	4320,83
447,822	4267,83
448,279	4083,83
448,736	3979,83
449,193	3773,83
449,651	3578,83
450,108	3422,83
450,565	3263,83
451,022	3058,83
451,479	2916,83
451,936	2734,83
452,393	2519,83
452,85	2357,83
453,307	2298,83
453,764	2152,83
454,221	1968,83
454,677	1918,83
455,134	1795,83
455,591	1728,83
456,048	1697,83
456,505	1635,83
456,961	1536,83
457,418	1534,83
457,875	1446,83
458,331	1454,83
458,788	1392,83
459,244	1366,83
459,701	1302,83
460,158	1303,83
460,614	1292,83
461,071	1237,83
461,527	1198,83
461,983	1138,83
462,44	1099,83
462,896	1112,83
463,353	1003,83
463,809	1028,83
464,265	950,83
464,721	924,83
465,178	918,83
465,634	905,83
466,09	840,83
466,546	811,83
467,002	751,83
467,458	787,83
467,915	689,83
468,371	687,83
468,827	638,83
469,283	612,83
469,739	648,83
470,195	580,83
470,651	574,83
471,106	556,83
471,562	521,83
472,018	533,83
472,474	515,83
472,93	525,83
473,386	506,83
473,841	503,83
474,297	479,83
474,753	491,83
475,208	496,83
475,664	480,83
476,12	450,83
476,575	435,83
477,031	454,83
477,486	450,83
477,942	427,83
478,397	417,83
478,853	463,83
479,308	442,83
479,763	403,83
480,219	409,83
480,674	422,83
481,13	439,83
481,585	410,83
482,04	420,83
482,495	397,83
482,951	428,83
483,406	375,83
483,861	425,83
484,316	395,83
484,771	382,83
485,226	400,83
485,681	407,83
486,136	419,83
486,591	420,83
487,046	429,83
487,501	420,83
487,956	441,83
488,411	465,83
488,866	418,83
489,321	448,83
489,775	454,83
490,23	475,83
490,685	482,83
491,14	494,83
491,594	490,83
492,049	482,83
492,504	510,83
492,958	522,83
493,413	525,83
493,868	572,83
494,322	559,83
494,777	573,83
495,231	559,83
495,686	624,83
496,14	661,83
496,594	631,83
497,049	650,83
497,503	686,83
497,958	684,83
498,412	732,83
498,866	714,83
499,32	742,83
499,775	821,83
500,229	811,83
500,683	825,83
501,137	850,83
501,591	847,83
502,045	897,83
502,499	885,83
502,953	931,83
503,407	932,83
503,861	969,83
504,315	967,83
504,769	990,83
505,223	1018,83
505,677	1073,83
506,131	1099,83
506,585	1087,83
507,039	1143,83
507,492	1191,83
507,946	1228,83
508,4	1192,83
508,854	1214,83
509,307	1239,83
509,761	1288,83
510,214	1318,83
510,668	1298,83
511,122	1357,83
511,575	1359,83
512,029	1379,83
512,482	1405,83
512,936	1416,83
513,389	1458,83
513,842	1461,83
514,296	1507,83
514,749	1522,83
515,202	1583,83
515,656	1536,83
516,109	1575,83
516,562	1659,83
517,015	1631,83
517,469	1659,83
517,922	1592,83
518,375	1679,83
518,828	1635,83
519,281	1713,83
519,734	1723,83
520,187	1724,83
520,64	1782,83
521,093	1735,83
521,546	1792,83
521,999	1787,83
522,452	1813,83
522,905	1861,83
523,358	1857,83
523,81	1875,83
524,263	1864,83
524,716	1903,83
525,169	1873,83
525,621	1894,83
526,074	1955,83
526,527	1943,83
526,979	1958,83
527,432	1929,83
527,884	1955,83
528,337	2009,83
528,789	1978,83
529,242	2051,83
529,694	2019,83
530,147	2025,83
530,599	2045,83
531,052	2054,83
531,504	1980,83
531,956	2124,83
532,409	2061,83
532,861	2117,83
533,313	2033,83
533,765	2087,83
534,218	2119,83
534,67	2108,83
535,122	2136,83
535,574	2091,83
536,026	2090,83
536,478	2076,83
536,93	2089,83
537,382	2097,83
537,834	2144,83
538,286	2148,83
538,738	2112,83
539,19	2163,83
539,642	2145,83
540,094	2183,83
540,545	2121,83
540,997	2131,83
541,449	2150,83
541,901	2142,83
542,352	2184,83
542,804	2150,83
543,256	2167,83
543,707	2184,83
544,159	2184,83
544,611	2170,83
545,062	2202,83
545,514	2159,83
545,965	2168,83
546,417	2221,83
546,868	2179,83
547,319	2190,83
547,771	2196,83
548,222	2146,83
548,674	2210,83
549,125	2230,83
549,576	2234,83
550,027	2184,83
550,479	2221,83
550,93	2210,83
551,381	2262,83
551,832	2223,83
552,283	2263,83
552,734	2256,83
553,185	2285,83
553,636	2178,83
554,087	2200,83
554,538	2202,83
554,989	2191,83
555,44	2213,83
555,891	2216,83
556,342	2220,83
556,793	2224,83
557,244	2268,83
557,694	2204,83
558,145	2254,83
558,596	2286,83
559,047	2228,83
559,497	2250,83
559,948	2254,83
560,399	2255,83
560,849	2160,83
561,3	2201,83
561,75	2262,83
562,201	2243,83
562,651	2217,83
563,102	2229,83
563,552	2216,83
564,003	2275,83
564,453	2250,83
564,903	2261,83
565,354	2255,83
565,804	2285,83
566,254	2284,83
566,705	2248,83
567,155	2279,83
567,605	2268,83
568,055	2242,83
568,505	2319,83
568,955	2221,83
569,405	2242,83
569,856	2275,83
570,306	2293,83
570,756	2287,83
571,206	2299,83
571,656	2294,83
572,105	2288,83
572,555	2352,83
573,005	2293,83
573,455	2383,83
573,905	2325,83
574,355	2316,83
574,804	2358,83
575,254	2359,83
575,704	2378,83
576,154	2421,83
576,603	2393,83
577,053	2411,83
577,502	2442,83
577,952	2469,83
578,402	2462,83
578,851	2474,83
579,301	2452,83
579,75	2493,83
580,199	2508,83
580,649	2580,83
581,098	2578,83
581,548	2627,83
581,997	2633,83
582,446	2697,83
582,895	2718,83
583,345	2760,83
583,794	2804,83
584,243	2762,83
584,692	2860,83
585,141	2835,83
585,591	2862,83
586,04	3003,83
586,489	3032,83
586,938	3078,83
587,387	3046,83
587,836	3150,83
588,285	3115,83
588,734	3215,83
589,182	3234,83
589,631	3294,83
590,08	3277,83
590,529	3291,83
590,978	3260,83
591,426	3360,83
591,875	3311,83
592,324	3323,83
592,773	3325,83
593,221	3308,83
593,67	3246,83
594,118	3230,83
594,567	3187,83
595,016	3160,83
595,464	3167,83
595,913	3144,83
596,361	3140,83
596,809	2978,83
597,258	3048,83
597,706	2952,83
598,155	2862,83
598,603	2900,83
599,051	2863,83
599,499	2856,83
599,948	2821,83
600,396	2744,83
600,844	2757,83
601,292	2695,83
601,74	2668,83
602,188	2618,83
602,636	2613,83
603,085	2542,83
603,533	2579,83
603,981	2470,83
604,429	2474,83
604,876	2437,83
605,324	2392,83
605,772	2429,83
606,22	2336,83
606,668	2338,83
607,116	2279,83
607,563	2186,83
608,011	2250,83
608,459	2182,83
608,907	2120,83
609,354	2113,83
609,802	2102,83
610,25	2047,83
610,697	2077,83
611,145	2012,83
611,592	2028,83
612,04	2024,83
612,487	1897,83
612,935	1918,83
613,382	1908,83
613,829	1825,83
614,277	1816,83
614,724	1791,83
615,171	1747,83
615,619	1752,83
616,066	1733,83
616,513	1647,83
616,96	1705,83
617,408	1664,83
617,855	1616,83
618,302	1655,83
618,749	1577,83
619,196	1602,83
619,643	1530,83
620,09	1512,83
620,537	1506,83
620,984	1456,83
621,431	1452,83
621,878	1394,83
622,325	1362,83
622,771	1368,83
623,218	1378,83
623,665	1346,83
624,112	1342,83
624,559	1359,83
625,005	1292,83
625,452	1280,83
625,899	1293,83
626,345	1269,83
626,792	1239,83
627,238	1191,83
627,685	1175,83
628,131	1174,83
628,578	1165,83
629,024	1146,83
629,471	1121,83
629,917	1143,83
630,364	1117,83
630,81	1127,83
631,256	1080,83
631,703	1075,83
632,149	1069,83
632,595	1073,83
633,041	1002,83
633,487	1001,83
633,934	1062,83
634,38	997,83
634,826	966,83
635,272	1004,83
635,718	966,83
636,164	944,83
636,61	940,83
637,056	932,83
637,502	906,83
637,948	894,83
638,394	905,83
638,839	855,83
639,285	912,83
639,731	855,83
640,177	837,83
640,623	840,83
641,068	814,83
641,514	830,83
641,96	806,83
642,405	817,83
642,851	820,83
643,296	795,83
643,742	756,83
644,187	743,83
644,633	786,83
645,078	760,83
645,524	794,83
645,969	766,83
646,415	713,83
646,86	722,83
647,305	722,83
647,751	698,83
648,196	722,83
648,641	703,83
649,086	690,83
649,532	686,83
649,977	678,83
650,422	713,83
650,867	664,83
651,312	644,83
651,757	648,83
652,202	638,83
652,647	624,83
653,092	614,83
653,537	647,83
653,982	611,83
654,427	629,83
654,872	615,83
655,316	631,83
655,761	587,83
656,206	540,83
656,651	610,83
657,096	596,83
657,54	576,83
657,985	555,83
658,43	574,83
658,874	558,83
659,319	547,83
659,763	554,83
660,208	543,83
660,652	530,83
661,097	540,83
661,541	526,83
661,986	517,83
662,43	527,83
662,874	542,83
663,319	501,83
663,763	488,83
664,207	537,83
664,651	495,83
665,096	506,83
665,54	466,83
665,984	480,83
666,428	451,83
666,872	506,83
667,316	479,83
667,76	475,83
668,204	456,83
668,648	467,83
669,092	466,83
669,536	460,83
669,98	439,83
670,424	404,83
670,868	420,83
671,312	440,83
671,756	436,83
672,199	419,83
672,643	416,83
673,087	424,83
673,531	414,83
673,974	410,83
674,418	405,83
674,862	436,83
675,305	404,83
675,749	403,83
676,192	418,83
676,636	400,83
677,079	384,83
677,523	370,83
677,966	374,83
678,409	391,83
678,853	383,83
679,296	350,83
679,739	359,83
680,183	379,83
680,626	317,83
681,069	376,83
681,512	335,83
681,955	314,83
682,399	368,83
682,842	348,83
683,285	344,83
683,728	358,83
684,171	339,83
684,614	337,83
685,057	341,83
685,5	326,83
685,943	320,83
686,386	307,83
686,828	305,83
687,271	322,83
687,714	313,83
688,157	318,83
688,6	292,83
689,042	284,83
689,485	290,83
689,928	299,83
690,37	318,83
690,813	286,83
691,255	291,83
691,698	282,83
692,141	289,83
692,583	301,83
693,025	295,83
693,468	264,83
693,91	266,83
694,353	288,83
694,795	282,83
695,237	264,83
695,68	277,83
696,122	270,83
696,564	262,83
697,006	249,83
697,449	258,83
697,891	246,83
698,333	286,83
698,775	255,83
699,217	261,83
699,659	259,83
700,101	247,83
700,543	222,83
700,985	244,83
701,427	245,83
701,869	245,83
702,311	236,83
702,753	255,83
703,195	256,83
703,636	230,83
704,078	230,83
704,52	249,83
704,962	244,83
705,403	249,83
705,845	259,83
706,286	230,83
706,728	220,83
707,17	223,83
707,611	233,83
708,053	214,83
708,494	235,83
708,936	234,83
709,377	219,83
709,819	198,83
710,26	211,83
710,701	224,83
711,143	227,83
711,584	188,83
712,025	242,83
712,466	212,83
712,908	226,83
713,349	170,83
713,79	220,83
714,231	204,83
714,672	192,83
715,113	203,83
715,554	197,83
715,995	164,83
716,436	189,83
716,877	182,83
717,318	194,83
717,759	194,83
718,2	170,83
718,641	176,83
719,082	204,83
719,522	172,83
719,963	198,83
720,404	192,83
720,844	175,83
721,285	171,83
721,726	173,83
722,166	172,83
722,607	184,83
723,048	194,83
723,488	175,83
723,929	188,83
724,369	172,83
724,81	176,83
725,25	133,83
725,69	180,83
726,131	164,83
726,571	162,83
727,011	188,83
727,452	170,83
727,892	176,83
728,332	156,83
728,772	164,83
729,212	167,83
729,653	174,83
730,093	174,83
730,533	163,83
730,973	160,83
731,413	174,83
731,853	150,83
732,293	148,83
732,733	180,83
733,173	172,83
733,613	172,83
734,052	160,83
734,492	159,83
734,932	134,83
735,372	149,83
735,812	146,83
736,251	168,83
736,691	172,83
737,131	189,83
737,57	139,83
738,01	152,83
738,449	167,83
738,889	150,83
739,329	147,83
739,768	141,83
740,208	159,83
740,647	131,83
741,086	165,83
741,526	139,83
741,965	143,83
742,404	156,83
742,844	146,83
743,283	143,83
743,722	138,83
744,161	152,83
744,601	152,83
745,04	150,83
745,479	154,83
745,918	151,83
746,357	132,83
746,796	152,83
747,235	135,83
747,674	145,83
748,113	133,83
748,552	136,83
748,991	134,83
749,43	140,83
749,869	146,83
750,307	144,83
750,746	144,83
751,185	142,83
751,624	141,83
752,062	126,83
752,501	152,83
752,94	138,83
753,378	164,83
753,817	152,83
754,255	141,83
754,694	132,83
755,132	136,83
755,571	142,83
756,009	121,83
756,448	138,83
756,886	145,83
757,325	133,83
